# Wavelength_[A] Transmission
6002.500 0.89
6005.900 0.89
6009.300 0.89
6012.800 0.90
6016.200 0.90
6019.700 0.90
6023.100 0.90
6026.600 0.90
6030.000 0.90
6033.400 0.90
6036.900 0.90
6040.300 0.90
6043.700 0.90
6047.200 0.90
6050.600 0.90
6054.100 0.90
6057.500 0.91
6060.900 0.91
6064.400 0.91
6067.800 0.91
6071.200 0.91
6074.700 0.91
6078.100 0.91
6081.500 0.91
6085.000 0.91
6088.400 0.91
6091.800 0.91
6095.300 0.91
6098.700 0.91
6102.100 0.91
6105.600 0.91
6109.000 0.91
6112.400 0.91
6115.800 0.91
6119.300 0.91
6122.700 0.91
6126.100 0.91
6129.600 0.91
6133.000 0.91
6136.400 0.91
6139.800 0.90
6143.300 0.90
6146.700 0.90
6150.100 0.90
6153.500 0.90
6157.000 0.90
6160.400 0.90
6163.800 0.90
6167.200 0.90
6170.600 0.90
6174.100 0.90
6177.500 0.90
6180.900 0.90
6184.300 0.90
6187.800 0.90
6191.200 0.90
6194.600 0.90
6198.000 0.90
6201.400 0.90
6204.800 0.90
6208.300 0.90
6211.700 0.90
6215.100 0.90
6218.500 0.90
6221.900 0.90
6225.300 0.90
6228.800 0.90
6232.200 0.90
6235.600 0.90
6239.000 0.90
6242.400 0.90
6245.800 0.90
6249.200 0.90
6252.600 0.90
6256.100 0.90
6259.500 0.91
6262.900 0.91
6266.300 0.91
6269.700 0.91
6273.100 0.91
6276.500 0.91
6279.900 0.91
6283.300 0.91
6286.700 0.91
6290.100 0.91
6293.500 0.91
6297.000 0.91
6300.400 0.91
6303.800 0.91
6307.200 0.91
6310.600 0.91
6314.000 0.91
6317.400 0.91
6320.800 0.91
6324.200 0.91
6327.600 0.91
6331.000 0.91
6334.400 0.91
6337.800 0.91
6341.200 0.91
6344.600 0.91
6348.000 0.91
6351.400 0.91
6354.800 0.91
6358.200 0.91
6361.600 0.91
6365.000 0.91
6368.400 0.91
6371.800 0.91
6375.200 0.91
6378.600 0.91
6382.000 0.91
6385.400 0.90
6388.700 0.91
6392.100 0.91
6395.500 0.91
6398.900 0.90
6402.300 0.90
6405.700 0.90
6409.100 0.90
6412.500 0.90
6415.900 0.91
6419.300 0.91
6422.700 0.91
6426.100 0.91
6429.400 0.91
6432.800 0.91
6436.200 0.91
6439.600 0.91
6443.000 0.91
6446.400 0.91
6449.800 0.91
6453.200 0.91
6456.500 0.91
6459.900 0.91
6463.300 0.91
6466.700 0.91
6470.100 0.91
6473.500 0.91
6476.800 0.91
6480.200 0.92
6483.600 0.91
6487.000 0.92
6490.400 0.92
6493.800 0.92
6497.100 0.92
6500.500 0.92
6503.900 0.92
6507.300 0.92
6510.600 0.92
6514.000 0.92
6517.400 0.92
6520.800 0.92
6524.200 0.92
6527.500 0.92
6530.900 0.92
6534.300 0.92
6537.700 0.92
6541.000 0.91
6544.400 0.91
6547.800 0.91
6551.200 0.91
6554.500 0.91
6557.900 0.91
6561.300 0.91
6564.600 0.91
6568.000 0.91
6571.400 0.91
6574.800 0.91
6578.100 0.91
6581.500 0.91
6584.900 0.91
6588.200 0.91
6591.600 0.91
6595.000 0.91
6598.300 0.91
6601.700 0.91
6605.100 0.91
6608.400 0.91
6611.800 0.91
6615.200 0.91
6618.500 0.91
6621.900 0.91
6625.300 0.91
6628.600 0.91
6632.000 0.91
6635.300 0.91
6638.700 0.91
6642.100 0.91
6645.400 0.91
6648.800 0.91
6652.100 0.91
6655.500 0.91
6658.900 0.91
6662.200 0.91
6665.600 0.91
6668.900 0.91
6672.300 0.91
6675.700 0.91
6679.000 0.92
6682.400 0.92
6685.700 0.92
6689.100 0.92
6692.400 0.92
6695.800 0.92
6699.100 0.92
6702.500 0.92
6705.900 0.92
6709.200 0.92
6712.600 0.92
6715.900 0.92
6719.300 0.92
6722.600 0.92
6726.000 0.92
6729.300 0.92
6732.700 0.92
6736.000 0.92
6739.400 0.92
6742.700 0.92
6746.100 0.92
6749.400 0.91
6752.800 0.91
6756.100 0.91
6759.400 0.91
6762.800 0.91
6766.100 0.91
6769.500 0.91
6772.800 0.91
6776.200 0.91
6779.500 0.91
6782.900 0.91
6786.200 0.91
6789.500 0.91
6792.900 0.91
6796.200 0.91
6799.600 0.91
6802.900 0.91
6806.200 0.91
6809.600 0.91
6812.900 0.92
6816.300 0.92
6819.600 0.92
6822.900 0.92
6826.300 0.92
6829.600 0.92
6833.000 0.92
6836.300 0.92
6839.600 0.92
6843.000 0.92
6846.300 0.92
6849.600 0.92
6853.000 0.92
6856.300 0.92
6859.600 0.92
6863.000 0.92
6866.300 0.92
6869.600 0.92
6873.000 0.92
6876.300 0.92
6879.600 0.92
6883.000 0.91
6886.300 0.91
6889.600 0.91
6892.900 0.91
6896.300 0.91
6899.600 0.91
6902.900 0.91
6906.200 0.91
6909.600 0.91
6912.900 0.91
6916.200 0.91
6919.600 0.91
6922.900 0.91
6926.200 0.91
6929.500 0.92
6932.900 0.92
6936.200 0.92
6939.500 0.92
6942.800 0.92
6946.100 0.92
6949.500 0.92
6952.800 0.91
6956.100 0.90
6959.400 0.89
6962.700 0.87
6966.100 0.85
6969.400 0.83
6972.700 0.80
6976.000 0.77
6979.300 0.73
6982.700 0.68
6986.000 0.63
6989.300 0.59
6992.600 0.54
6995.900 0.49
6999.200 0.44
7002.500 0.39
7005.900 0.35
7009.200 0.31
7012.500 0.27
7015.800 0.24
7019.100 0.21
7022.400 0.18
7025.700 0.16
7029.000 0.14
7032.400 0.12
7035.700 0.10
7039.000 0.09
7042.300 0.08
7045.600 0.07
7048.900 0.06
7052.200 0.05
7055.500 0.05
7058.800 0.04
7062.100 0.04
7065.400 0.03
7068.700 0.03
7072.000 0.02
7075.400 0.02
7078.700 0.02
7082.000 0.02
7085.300 0.02
7088.600 0.01
7091.900 0.01
7095.200 0.01
7098.500 0.01
7101.800 0.01
7105.100 0.01
7108.400 0.01
7111.700 0.01
7115.000 0.01
7118.300 0.00
7121.600 0.00
7124.900 0.00
7128.200 0.00
7131.500 0.00
7134.800 0.00
7138.100 0.00
7141.400 0.00
7144.700 0.00
7148.000 0.00
7151.200 0.00
7154.500 0.00
7157.800 0.00
7161.100 0.00
7164.400 0.00
7167.700 0.00
7171.000 0.00
7174.300 0.00
7177.600 0.00
7180.900 0.00
