# Wavelength_[A] Transmission
3934.000 0.01
3936.000 0.01
3938.000 0.01
3939.000 0.02
3941.000 0.02
3942.000 0.02
3944.000 0.02
3946.000 0.02
3947.000 0.02
3949.000 0.02
3950.000 0.02
3952.000 0.02
3954.000 0.02
3955.000 0.02
3957.000 0.02
3958.000 0.02
3960.000 0.02
3962.000 0.02
3963.000 0.02
3965.000 0.03
3966.000 0.03
3968.000 0.03
3970.000 0.03
3971.000 0.03
3973.000 0.03
3974.000 0.03
3976.000 0.04
3978.000 0.04
3979.000 0.04
3981.000 0.05
3982.000 0.05
3984.000 0.06
3985.000 0.06
3987.000 0.07
3989.000 0.08
3990.000 0.09
3992.000 0.10
3993.000 0.12
3995.000 0.13
3997.000 0.15
3998.000 0.16
4000.000 0.18
4001.000 0.21
4003.000 0.23
4005.000 0.26
4006.000 0.28
4008.000 0.31
4009.000 0.34
4011.000 0.37
4013.000 0.39
4014.000 0.42
4016.000 0.45
4017.000 0.48
4019.000 0.50
4020.000 0.52
4022.000 0.54
4024.000 0.56
4025.000 0.58
4027.000 0.59
4028.000 0.60
4030.000 0.61
4032.000 0.62
4033.000 0.63
4035.000 0.64
4036.000 0.64
4038.000 0.64
4039.000 0.65
4041.000 0.65
4043.000 0.65
4044.000 0.65
4046.000 0.65
4047.000 0.65
4049.000 0.65
4051.000 0.65
4052.000 0.65
4054.000 0.65
4055.000 0.65
4057.000 0.65
4058.000 0.65
4060.000 0.65
4062.000 0.65
4063.000 0.65
4065.000 0.65
4066.000 0.65
4068.000 0.66
4070.000 0.66
4071.000 0.66
4073.000 0.66
4074.000 0.66
4076.000 0.66
4077.000 0.66
4079.000 0.66
4081.000 0.66
4082.000 0.66
4084.000 0.66
4085.000 0.67
4087.000 0.67
4089.000 0.67
4090.000 0.67
4092.000 0.67
4093.000 0.67
4095.000 0.67
4096.000 0.67
4098.000 0.67
4100.000 0.67
4101.000 0.67
4103.000 0.68
4104.000 0.68
4106.000 0.68
4107.000 0.68
4109.000 0.68
4111.000 0.68
4112.000 0.68
4114.000 0.68
4115.000 0.68
4117.000 0.68
4118.000 0.68
4120.000 0.68
4122.000 0.68
4123.000 0.68
4125.000 0.68
4126.000 0.69
4128.000 0.69
4129.000 0.69
4131.000 0.69
4133.000 0.69
4134.000 0.69
4136.000 0.69
4137.000 0.69
4139.000 0.69
4140.000 0.69
4142.000 0.69
4144.000 0.69
4145.000 0.69
4147.000 0.69
4148.000 0.69
4150.000 0.69
4151.000 0.70
4153.000 0.70
4155.000 0.70
4156.000 0.70
4158.000 0.70
4159.000 0.70
4161.000 0.70
4162.000 0.70
4164.000 0.70
4166.000 0.70
4167.000 0.70
4169.000 0.70
4170.000 0.70
4172.000 0.70
4173.000 0.70
4175.000 0.70
4177.000 0.70
4178.000 0.70
4180.000 0.71
4181.000 0.71
4183.000 0.71
4184.000 0.71
4186.000 0.71
4187.000 0.71
4189.000 0.71
4191.000 0.71
4192.000 0.71
4194.000 0.71
4195.000 0.71
4197.000 0.71
4198.000 0.71
4200.000 0.71
4202.000 0.71
4203.000 0.71
4205.000 0.71
4206.000 0.71
4208.000 0.71
4209.000 0.71
4211.000 0.71
4213.000 0.71
4214.000 0.71
4216.000 0.72
4217.000 0.72
4219.000 0.72
4220.000 0.72
4222.000 0.72
4223.000 0.72
4225.000 0.72
4227.000 0.72
4228.000 0.72
4230.000 0.72
4231.000 0.72
4233.000 0.72
4234.000 0.72
4236.000 0.72
4237.000 0.72
4239.000 0.72
4241.000 0.72
4242.000 0.72
4244.000 0.72
4245.000 0.72
4247.000 0.73
4248.000 0.73
4250.000 0.73
4251.000 0.73
4253.000 0.73
4255.000 0.73
4256.000 0.73
4258.000 0.73
4259.000 0.73
4261.000 0.73
4262.000 0.73
4264.000 0.73
4265.000 0.73
4267.000 0.73
4269.000 0.73
4270.000 0.73
4272.000 0.74
4273.000 0.74
4275.000 0.74
4276.000 0.74
4278.000 0.74
4279.000 0.74
4281.000 0.74
4283.000 0.74
4284.000 0.74
4286.000 0.74
4287.000 0.74
4289.000 0.74
4290.000 0.74
4292.000 0.74
4293.000 0.74
4295.000 0.74
4296.000 0.74
4298.000 0.74
4300.000 0.74
4301.000 0.74
4303.000 0.74
4304.000 0.75
4306.000 0.75
4307.000 0.75
4309.000 0.75
4310.000 0.75
4312.000 0.75
4314.000 0.75
4315.000 0.75
4317.000 0.75
4318.000 0.75
4320.000 0.75
4321.000 0.75
4323.000 0.75
4324.000 0.75
4326.000 0.75
4327.000 0.75
4329.000 0.75
4331.000 0.75
4332.000 0.76
4334.000 0.76
4335.000 0.76
4337.000 0.76
4338.000 0.76
4340.000 0.76
4341.000 0.76
4343.000 0.76
4344.000 0.76
4346.000 0.76
4347.000 0.76
4349.000 0.76
4351.000 0.76
4352.000 0.76
4354.000 0.76
4355.000 0.76
4357.000 0.77
4358.000 0.77
4360.000 0.77
4361.000 0.77
4363.000 0.77
4364.000 0.77
4366.000 0.77
4368.000 0.77
4369.000 0.77
4371.000 0.77
4372.000 0.77
4374.000 0.77
4375.000 0.77
4377.000 0.77
4378.000 0.77
4380.000 0.77
4381.000 0.77
4383.000 0.77
4384.000 0.77
4386.000 0.78
4388.000 0.78
4389.000 0.78
4391.000 0.78
4392.000 0.78
4394.000 0.78
4395.000 0.78
4397.000 0.78
4398.000 0.78
4400.000 0.78
4401.000 0.78
4403.000 0.78
4404.000 0.78
4406.000 0.78
4407.000 0.78
4409.000 0.78
4411.000 0.78
4412.000 0.78
4414.000 0.78
4415.000 0.78
4417.000 0.78
4418.000 0.78
4420.000 0.78
4421.000 0.78
4423.000 0.78
4424.000 0.79
4426.000 0.79
4427.000 0.79
4429.000 0.79
4430.000 0.79
4432.000 0.79
4434.000 0.79
4435.000 0.79
4437.000 0.79
4438.000 0.79
4440.000 0.79
4441.000 0.79
4443.000 0.79
4444.000 0.79
4446.000 0.79
4447.000 0.79
4449.000 0.79
4450.000 0.79
4452.000 0.79
4453.000 0.79
4455.000 0.79
4456.000 0.79
4458.000 0.79
4459.000 0.79
4461.000 0.79
4463.000 0.79
4464.000 0.80
4466.000 0.80
4467.000 0.80
4469.000 0.80
4470.000 0.80
4472.000 0.80
4473.000 0.80
4475.000 0.80
4476.000 0.80
4478.000 0.80
4479.000 0.80
4481.000 0.80
4482.000 0.80
4484.000 0.80
4485.000 0.80
4487.000 0.80
4488.000 0.80
4490.000 0.80
4491.000 0.80
4493.000 0.80
4495.000 0.80
4496.000 0.80
4498.000 0.80
4499.000 0.80
4501.000 0.80
4502.000 0.80
4504.000 0.80
4505.000 0.81
4507.000 0.81
4508.000 0.81
4510.000 0.81
4511.000 0.81
4513.000 0.81
4514.000 0.81
4516.000 0.81
4517.000 0.81
4519.000 0.81
4520.000 0.81
4522.000 0.81
4523.000 0.81
4525.000 0.81
4526.000 0.81
4528.000 0.81
4529.000 0.81
4531.000 0.81
4532.000 0.81
4534.000 0.81
4536.000 0.81
4537.000 0.81
4539.000 0.81
4540.000 0.82
4542.000 0.82
4543.000 0.82
4545.000 0.82
4546.000 0.82
4548.000 0.82
4549.000 0.82
4551.000 0.82
4552.000 0.82
4554.000 0.82
4555.000 0.82
4557.000 0.82
4558.000 0.82
4560.000 0.82
4561.000 0.82
4563.000 0.82
4564.000 0.82
4566.000 0.82
4567.000 0.82
4569.000 0.82
4570.000 0.82
4572.000 0.82
4573.000 0.82
4575.000 0.82
4576.000 0.82
4578.000 0.82
4579.000 0.82
4581.000 0.82
4582.000 0.82
4584.000 0.82
4585.000 0.82
4587.000 0.82
4588.000 0.82
4590.000 0.82
4591.000 0.82
4593.000 0.82
4594.000 0.83
4596.000 0.83
4597.000 0.83
4599.000 0.83
4600.000 0.83
4602.000 0.83
4603.000 0.83
4605.000 0.83
4606.000 0.83
4608.000 0.83
4610.000 0.83
4611.000 0.83
4613.000 0.83
4614.000 0.83
4616.000 0.83
4617.000 0.83
4619.000 0.83
4620.000 0.83
4622.000 0.83
4623.000 0.83
4625.000 0.83
4626.000 0.83
4628.000 0.83
4629.000 0.83
4631.000 0.83
4632.000 0.83
4634.000 0.83
4635.000 0.83
4637.000 0.83
4638.000 0.83
4640.000 0.83
4641.000 0.83
4643.000 0.84
4644.000 0.84
4646.000 0.84
4647.000 0.84
4649.000 0.84
4650.000 0.84
4652.000 0.84
4653.000 0.84
4655.000 0.84
4656.000 0.84
4658.000 0.84
4659.000 0.84
4661.000 0.84
4662.000 0.84
4664.000 0.84
4665.000 0.84
4667.000 0.84
4668.000 0.84
4670.000 0.84
4671.000 0.84
4673.000 0.84
4674.000 0.84
4675.000 0.84
4677.000 0.84
4678.000 0.84
4680.000 0.84
4681.000 0.84
4683.000 0.84
4684.000 0.84
4686.000 0.84
4687.000 0.84
4689.000 0.84
4690.000 0.84
4692.000 0.84
4693.000 0.84
4695.000 0.85
4696.000 0.85
4698.000 0.85
4699.000 0.85
4701.000 0.85
4702.000 0.85
4704.000 0.85
4705.000 0.85
4707.000 0.85
4708.000 0.85
4710.000 0.85
4711.000 0.85
4713.000 0.85
4714.000 0.85
4716.000 0.85
4717.000 0.85
4719.000 0.85
4720.000 0.85
4722.000 0.85
4723.000 0.85
4725.000 0.85
4726.000 0.85
4728.000 0.85
4729.000 0.85
4731.000 0.85
4732.000 0.85
4734.000 0.85
4735.000 0.85
4737.000 0.85
4738.000 0.85
4740.000 0.85
4741.000 0.85
4743.000 0.85
4744.000 0.86
4746.000 0.86
4747.000 0.86
4748.000 0.86
4750.000 0.86
4751.000 0.86
4753.000 0.86
4754.000 0.86
4756.000 0.86
4757.000 0.86
4759.000 0.86
4760.000 0.86
4762.000 0.86
4763.000 0.86
4765.000 0.86
4766.000 0.86
4768.000 0.86
4769.000 0.86
4771.000 0.86
4772.000 0.86
4774.000 0.86
4775.000 0.86
4777.000 0.86
4778.000 0.86
4780.000 0.86
4781.000 0.86
4783.000 0.86
4784.000 0.86
4786.000 0.86
4787.000 0.86
4788.000 0.86
4790.000 0.86
4791.000 0.86
4793.000 0.86
4794.000 0.86
4796.000 0.86
4797.000 0.86
4799.000 0.86
4800.000 0.87
4802.000 0.87
4803.000 0.87
4805.000 0.87
4806.000 0.87
4808.000 0.87
4809.000 0.87
4811.000 0.87
4812.000 0.87
4814.000 0.87
4815.000 0.87
4817.000 0.87
4818.000 0.87
4819.000 0.87
4821.000 0.87
4822.000 0.87
4824.000 0.87
4825.000 0.87
4827.000 0.87
4828.000 0.87
4830.000 0.87
4831.000 0.87
4833.000 0.87
4834.000 0.87
4836.000 0.87
4837.000 0.87
4839.000 0.87
4840.000 0.87
4842.000 0.87
4843.000 0.87
4845.000 0.87
4846.000 0.87
4847.000 0.87
4849.000 0.87
4850.000 0.87
4852.000 0.87
4853.000 0.87
4855.000 0.87
4856.000 0.87
4858.000 0.87
4859.000 0.87
4861.000 0.87
4862.000 0.87
4864.000 0.87
4865.000 0.87
4867.000 0.87
4868.000 0.87
4869.000 0.87
4871.000 0.87
4872.000 0.87
4874.000 0.87
4875.000 0.87
4877.000 0.87
4878.000 0.87
4880.000 0.87
4881.000 0.87
4883.000 0.87
4884.000 0.87
4886.000 0.87
4887.000 0.87
4889.000 0.87
4890.000 0.87
4891.000 0.87
4893.000 0.87
4894.000 0.87
4896.000 0.87
4897.000 0.87
4899.000 0.87
4900.000 0.87
4902.000 0.87
4903.000 0.87
4905.000 0.87
4906.000 0.87
4908.000 0.87
4909.000 0.87
4910.000 0.87
4912.000 0.87
4913.000 0.87
4915.000 0.87
4916.000 0.87
4918.000 0.87
4919.000 0.87
4921.000 0.87
4922.000 0.87
4924.000 0.87
4925.000 0.87
4927.000 0.87
4928.000 0.87
4929.000 0.87
4931.000 0.87
4932.000 0.87
4934.000 0.87
4935.000 0.87
4937.000 0.87
4938.000 0.87
4940.000 0.87
4941.000 0.87
4943.000 0.87
4944.000 0.87
4945.000 0.87
4947.000 0.87
4948.000 0.87
4950.000 0.87
4951.000 0.87
4953.000 0.87
4954.000 0.87
4956.000 0.87
4957.000 0.87
4959.000 0.87
4960.000 0.87
4961.000 0.87
4963.000 0.87
4964.000 0.87
4966.000 0.87
4967.000 0.87
4969.000 0.87
4970.000 0.87
4972.000 0.87
4973.000 0.87
4975.000 0.87
4976.000 0.87
4977.000 0.87
4979.000 0.87
4980.000 0.87
4982.000 0.87
4983.000 0.87
4985.000 0.87
4986.000 0.87
4988.000 0.87
4989.000 0.87
4990.000 0.87
4992.000 0.87
4993.000 0.87
4995.000 0.87
4996.000 0.87
4998.000 0.87
4999.000 0.87
5001.000 0.87
5002.000 0.87
5003.000 0.87
5005.000 0.87
5006.000 0.87
5008.000 0.87
5009.000 0.87
5011.000 0.87
5012.000 0.87
5014.000 0.87
5015.000 0.87
5017.000 0.87
5018.000 0.87
5019.000 0.87
5021.000 0.87
5022.000 0.87
5024.000 0.87
5025.000 0.87
5027.000 0.87
5028.000 0.87
5029.000 0.87
5031.000 0.87
5032.000 0.87
5034.000 0.87
5035.000 0.87
5037.000 0.87
5038.000 0.87
5040.000 0.87
5041.000 0.87
5042.000 0.87
5044.000 0.87
5045.000 0.87
5047.000 0.87
5048.000 0.87
5050.000 0.87
5051.000 0.87
5053.000 0.87
5054.000 0.87
5055.000 0.87
5057.000 0.87
5058.000 0.87
5060.000 0.87
5061.000 0.87
5063.000 0.87
5064.000 0.87
5065.000 0.87
5067.000 0.87
5068.000 0.87
5070.000 0.87
5071.000 0.87
5073.000 0.87
5074.000 0.87
5076.000 0.87
5077.000 0.87
5078.000 0.87
5080.000 0.87
5081.000 0.87
5083.000 0.87
5084.000 0.87
5086.000 0.87
5087.000 0.87
5088.000 0.87
5090.000 0.87
5091.000 0.87
5093.000 0.87
5094.000 0.87
5096.000 0.87
5097.000 0.87
5098.000 0.87
5100.000 0.87
5101.000 0.87
5103.000 0.87
5104.000 0.86
5106.000 0.87
5107.000 0.86
5109.000 0.86
5110.000 0.86
5111.000 0.86
5113.000 0.86
5114.000 0.86
5116.000 0.86
5117.000 0.86
5119.000 0.86
5120.000 0.86
5121.000 0.86
5123.000 0.86
5124.000 0.86
5126.000 0.86
5127.000 0.86
5129.000 0.86
5130.000 0.86
5131.000 0.86
5133.000 0.86
5134.000 0.86
5136.000 0.86
5137.000 0.86
5139.000 0.86
5140.000 0.86
5141.000 0.86
5143.000 0.86
5144.000 0.86
5146.000 0.86
5147.000 0.86
5148.000 0.86
5150.000 0.86
5151.000 0.85
5153.000 0.85
5154.000 0.85
5156.000 0.85
5157.000 0.85
5158.000 0.85
5160.000 0.85
5161.000 0.85
5163.000 0.85
5164.000 0.85
5166.000 0.85
5167.000 0.85
5168.000 0.85
5170.000 0.85
5171.000 0.85
5173.000 0.85
5174.000 0.85
5176.000 0.85
5177.000 0.85
5178.000 0.85
5180.000 0.85
5181.000 0.85
5183.000 0.84
5184.000 0.84
5185.000 0.84
5187.000 0.84
5188.000 0.84
5190.000 0.84
5191.000 0.84
5193.000 0.84
5194.000 0.84
5195.000 0.84
5197.000 0.84
5198.000 0.84
5200.000 0.84
5201.000 0.84
5202.000 0.84
5204.000 0.83
5205.000 0.83
5207.000 0.83
5208.000 0.83
5210.000 0.83
5211.000 0.83
5212.000 0.83
5214.000 0.83
5215.000 0.83
5217.000 0.83
5218.000 0.83
5219.000 0.83
5221.000 0.83
5222.000 0.83
5224.000 0.83
5225.000 0.83
5227.000 0.82
5228.000 0.82
5229.000 0.82
5231.000 0.82
5232.000 0.82
5234.000 0.82
5235.000 0.82
5236.000 0.82
5238.000 0.82
5239.000 0.82
5241.000 0.82
5242.000 0.82
5243.000 0.82
5245.000 0.82
5246.000 0.82
5248.000 0.82
5249.000 0.81
5250.000 0.81
5252.000 0.81
5253.000 0.81
5255.000 0.81
5256.000 0.81
5258.000 0.81
5259.000 0.81
5260.000 0.81
5262.000 0.81
5263.000 0.80
5265.000 0.80
5266.000 0.80
5267.000 0.80
5269.000 0.80
5270.000 0.80
5272.000 0.80
5273.000 0.80
5274.000 0.80
5276.000 0.80
5277.000 0.80
5279.000 0.80
5280.000 0.80
5281.000 0.80
5283.000 0.80
5284.000 0.80
5286.000 0.79
5287.000 0.79
5288.000 0.79
5290.000 0.79
5291.000 0.79
5293.000 0.79
5294.000 0.79
5295.000 0.79
5297.000 0.79
5298.000 0.79
5300.000 0.79
5301.000 0.78
5302.000 0.78
5304.000 0.78
5305.000 0.78
5307.000 0.78
5308.000 0.78
5309.000 0.78
5311.000 0.78
5312.000 0.78
5314.000 0.78
5315.000 0.77
5316.000 0.77
5318.000 0.77
5319.000 0.77
5321.000 0.77
5322.000 0.77
5323.000 0.77
5325.000 0.77
5326.000 0.77
5328.000 0.77
5329.000 0.77
5330.000 0.76
5332.000 0.76
5333.000 0.76
5335.000 0.76
5336.000 0.76
5337.000 0.76
5339.000 0.76
5340.000 0.76
5342.000 0.76
5343.000 0.76
5344.000 0.76
5346.000 0.76
5347.000 0.75
5349.000 0.75
5350.000 0.75
5351.000 0.75
5353.000 0.75
5354.000 0.75
5356.000 0.75
5357.000 0.75
5358.000 0.74
5360.000 0.74
5361.000 0.74
5363.000 0.74
5364.000 0.74
5365.000 0.74
5367.000 0.74
5368.000 0.74
5369.000 0.74
5371.000 0.74
5372.000 0.74
5374.000 0.74
5375.000 0.73
5376.000 0.73
5378.000 0.73
5379.000 0.73
5381.000 0.73
5382.000 0.73
5383.000 0.73
5385.000 0.72
5386.000 0.72
5388.000 0.72
5389.000 0.72
5390.000 0.72
5392.000 0.72
5393.000 0.72
5394.000 0.72
5396.000 0.72
5397.000 0.72
5399.000 0.72
5400.000 0.71
5401.000 0.71
5403.000 0.71
5404.000 0.71
5406.000 0.71
5407.000 0.71
5408.000 0.71
5410.000 0.71
5411.000 0.70
5412.000 0.70
5414.000 0.70
5415.000 0.70
5417.000 0.70
5418.000 0.70
5419.000 0.70
5421.000 0.69
5422.000 0.69
5424.000 0.69
5425.000 0.69
5426.000 0.69
5428.000 0.69
5429.000 0.69
5430.000 0.68
5432.000 0.68
5433.000 0.68
5435.000 0.68
5436.000 0.68
5437.000 0.68
5439.000 0.67
5440.000 0.67
5441.000 0.67
5443.000 0.67
5444.000 0.66
5446.000 0.66
5447.000 0.66
5448.000 0.66
5450.000 0.65
5451.000 0.65
5453.000 0.65
5454.000 0.64
5455.000 0.64
5457.000 0.64
5458.000 0.63
5459.000 0.63
5461.000 0.63
5462.000 0.62
5464.000 0.62
5465.000 0.61
5466.000 0.61
5468.000 0.60
5469.000 0.60
5470.000 0.59
5472.000 0.59
5473.000 0.58
5475.000 0.58
5476.000 0.57
5477.000 0.56
5479.000 0.56
5480.000 0.55
5481.000 0.54
5483.000 0.53
5484.000 0.53
5485.000 0.52
5487.000 0.51
5488.000 0.50
5490.000 0.49
5491.000 0.48
5492.000 0.48
5494.000 0.47
5495.000 0.46
5496.000 0.45
5498.000 0.44
5499.000 0.43
5501.000 0.42
5502.000 0.41
5503.000 0.40
5505.000 0.39
5506.000 0.38
5507.000 0.37
5509.000 0.36
5510.000 0.35
5512.000 0.34
5513.000 0.33
5514.000 0.32
5516.000 0.31
5517.000 0.30
5518.000 0.29
5520.000 0.28
5521.000 0.27
5522.000 0.27
5524.000 0.26
5525.000 0.25
5527.000 0.24
5528.000 0.23
5529.000 0.22
5531.000 0.22
5532.000 0.21
5533.000 0.20
5535.000 0.19
5536.000 0.18
5537.000 0.18
5539.000 0.17
5540.000 0.17
5542.000 0.16
5543.000 0.15
5544.000 0.15
5546.000 0.14
5547.000 0.14
5548.000 0.13
5550.000 0.13
5551.000 0.12
5552.000 0.12
5554.000 0.11
5555.000 0.11
5557.000 0.10
5558.000 0.10
5559.000 0.10
5561.000 0.09
5562.000 0.09
5563.000 0.09
5565.000 0.08
5566.000 0.08
5567.000 0.08
5569.000 0.07
5570.000 0.07
5572.000 0.07
5573.000 0.06
5574.000 0.06
5576.000 0.06
5577.000 0.06
5578.000 0.06
5580.000 0.06
5581.000 0.06
5582.000 0.05
5584.000 0.05
5585.000 0.05
5586.000 0.04
5588.000 0.04
5589.000 0.04
5591.000 0.04
5592.000 0.03
5593.000 0.03
5595.000 0.03
5596.000 0.02
5597.000 0.02
5599.000 0.02
5600.000 0.02
5601.000 0.02
5603.000 0.02
5604.000 0.02
5605.000 0.02
5607.000 0.02
5608.000 0.02
5609.000 0.02
5611.000 0.02
5612.000 0.02
5614.000 0.02
5615.000 0.02
5616.000 0.02
5618.000 0.02
