# Wavelength_[A] Transmission
6685.700 0.00
6689.100 0.00
6692.400 0.00
6695.800 0.00
6699.100 0.00
6702.500 0.00
6705.900 0.00
6709.200 0.00
6712.600 0.00
6715.900 0.00
6719.300 0.00
6722.600 0.00
6726.000 0.00
6729.300 0.00
6732.700 0.00
6736.000 0.00
6739.400 0.00
6742.700 0.00
6746.100 0.00
6749.400 0.01
6752.800 0.01
6756.100 0.01
6759.400 0.01
6762.800 0.01
6766.100 0.01
6769.500 0.01
6772.800 0.01
6776.200 0.01
6779.500 0.01
6782.900 0.02
6786.200 0.02
6789.500 0.02
6792.900 0.02
6796.200 0.03
6799.600 0.03
6802.900 0.03
6806.200 0.03
6809.600 0.04
6812.900 0.04
6816.300 0.05
6819.600 0.05
6822.900 0.05
6826.300 0.06
6829.600 0.06
6833.000 0.07
6836.300 0.07
6839.600 0.08
6843.000 0.09
6846.300 0.09
6849.600 0.10
6853.000 0.11
6856.300 0.12
6859.600 0.12
6863.000 0.13
6866.300 0.14
6869.600 0.15
6873.000 0.16
6876.300 0.17
6879.600 0.18
6883.000 0.19
6886.300 0.20
6889.600 0.21
6892.900 0.22
6896.300 0.23
6899.600 0.24
6902.900 0.25
6906.200 0.26
6909.600 0.28
6912.900 0.29
6916.200 0.30
6919.600 0.31
6922.900 0.33
6926.200 0.34
6929.500 0.35
6932.900 0.36
6936.200 0.37
6939.500 0.39
6942.800 0.40
6946.100 0.41
6949.500 0.42
6952.800 0.43
6956.100 0.45
6959.400 0.46
6962.700 0.47
6966.100 0.48
6969.400 0.49
6972.700 0.50
6976.000 0.51
6979.300 0.52
6982.700 0.53
6986.000 0.54
6989.300 0.55
6992.600 0.56
6995.900 0.57
6999.200 0.58
7002.500 0.59
7005.900 0.60
7009.200 0.61
7012.500 0.62
7015.800 0.63
7019.100 0.64
7022.400 0.64
7025.700 0.65
7029.000 0.66
7032.400 0.67
7035.700 0.67
7039.000 0.68
7042.300 0.69
7045.600 0.69
7048.900 0.70
7052.200 0.71
7055.500 0.71
7058.800 0.72
7062.100 0.73
7065.400 0.73
7068.700 0.74
7072.000 0.74
7075.400 0.75
7078.700 0.75
7082.000 0.76
7085.300 0.76
7088.600 0.77
7091.900 0.77
7095.200 0.78
7098.500 0.78
7101.800 0.79
7105.100 0.79
7108.400 0.80
7111.700 0.80
7115.000 0.81
7118.300 0.81
7121.600 0.81
7124.900 0.82
7128.200 0.82
7131.500 0.82
7134.800 0.83
7138.100 0.83
7141.400 0.83
7144.700 0.84
7148.000 0.84
7151.200 0.84
7154.500 0.84
7157.800 0.85
7161.100 0.85
7164.400 0.85
7167.700 0.86
7171.000 0.86
7174.300 0.86
7177.600 0.86
7180.900 0.86
7184.200 0.87
7187.500 0.87
7190.800 0.87
7194.000 0.87
7197.300 0.87
7200.600 0.88
7203.900 0.88
7207.200 0.88
7210.500 0.88
7213.800 0.88
7217.100 0.88
7220.300 0.88
7223.600 0.89
7226.900 0.89
7230.200 0.89
7233.500 0.89
7236.800 0.89
7240.000 0.89
7243.300 0.89
7246.600 0.89
7249.900 0.90
7253.200 0.90
7256.500 0.90
7259.700 0.90
7263.000 0.90
7266.300 0.90
7269.600 0.90
7272.900 0.90
7276.100 0.90
7279.400 0.90
7282.700 0.90
7286.000 0.91
7289.200 0.91
7292.500 0.91
7295.800 0.91
7299.100 0.91
7302.300 0.91
7305.600 0.91
7308.900 0.91
7312.200 0.91
7315.400 0.91
7318.700 0.91
7322.000 0.91
7325.300 0.91
7328.500 0.92
7331.800 0.92
7335.100 0.92
7338.300 0.92
7341.600 0.92
7344.900 0.92
7348.100 0.92
7351.400 0.92
7354.700 0.92
7357.900 0.92
7361.200 0.92
7364.500 0.93
7367.700 0.93
7371.000 0.93
7374.300 0.93
7377.500 0.93
7380.800 0.93
7384.100 0.93
7387.300 0.93
7390.600 0.93
7393.900 0.93
7397.100 0.93
7400.400 0.93
7403.600 0.93
7406.900 0.93
7410.200 0.93
7413.400 0.93
7416.700 0.93
7419.900 0.93
7423.200 0.93
7426.500 0.93
7429.700 0.93
7433.000 0.93
7436.200 0.93
7439.500 0.94
7442.800 0.93
7446.000 0.93
7449.300 0.93
7452.500 0.93
7455.800 0.93
7459.000 0.93
7462.300 0.93
7465.500 0.93
7468.800 0.94
7472.000 0.93
7475.300 0.93
7478.500 0.93
7481.800 0.93
7485.000 0.93
7488.300 0.93
7491.500 0.93
7494.800 0.93
7498.000 0.94
7501.300 0.94
7504.500 0.94
7507.800 0.94
7511.000 0.94
7514.300 0.94
7517.500 0.94
7520.800 0.94
7524.000 0.94
7527.300 0.94
7530.500 0.94
7533.700 0.94
7537.000 0.94
7540.200 0.94
7543.500 0.94
7546.700 0.94
7550.000 0.94
7553.200 0.94
7556.400 0.94
7559.700 0.94
7562.900 0.94
7566.200 0.94
7569.400 0.94
7572.600 0.94
7575.900 0.94
7579.100 0.94
7582.400 0.94
7585.600 0.94
7588.800 0.94
7592.100 0.94
7595.300 0.94
7598.500 0.94
7601.800 0.94
7605.000 0.94
7608.200 0.94
7611.500 0.94
7614.700 0.94
7617.900 0.94
7621.200 0.94
7624.400 0.94
7627.600 0.94
7630.900 0.94
7634.100 0.94
7637.300 0.94
7640.600 0.94
7643.800 0.94
7647.000 0.94
7650.200 0.94
7653.500 0.94
7656.700 0.94
7659.900 0.95
7663.200 0.95
7666.400 0.95
7669.600 0.94
7672.800 0.94
7676.100 0.94
7679.300 0.94
7682.500 0.94
7685.700 0.94
7689.000 0.94
7692.200 0.94
7695.400 0.94
7698.600 0.94
7701.800 0.94
7705.100 0.94
7708.300 0.95
7711.500 0.94
7714.700 0.95
7717.900 0.95
7721.200 0.94
7724.400 0.94
7727.600 0.94
7730.800 0.94
7734.000 0.94
7737.200 0.95
7740.500 0.95
7743.700 0.95
7746.900 0.95
7750.100 0.95
7753.300 0.95
7756.500 0.95
7759.700 0.95
7763.000 0.95
7766.200 0.95
7769.400 0.95
7772.600 0.95
7775.800 0.95
7779.000 0.95
7782.200 0.95
7785.400 0.95
7788.700 0.95
7791.900 0.95
7795.100 0.95
7798.300 0.95
7801.500 0.95
7804.700 0.95
7807.900 0.95
7811.100 0.95
7814.300 0.94
7817.500 0.94
7820.700 0.94
7823.900 0.94
7827.100 0.94
7830.300 0.95
7833.500 0.95
7836.700 0.95
7839.900 0.95
7843.100 0.95
7846.400 0.95
7849.600 0.95
7852.800 0.95
7856.000 0.94
7859.200 0.94
7862.400 0.94
7865.600 0.94
7868.800 0.94
7871.900 0.94
7875.100 0.94
7878.300 0.94
7881.500 0.94
7884.700 0.94
7887.900 0.94
7891.100 0.94
7894.300 0.94
7897.500 0.94
7900.700 0.94
7903.900 0.94
7907.100 0.94
7910.300 0.94
7913.500 0.95
7916.700 0.95
7919.900 0.95
7923.100 0.95
7926.300 0.95
7929.400 0.94
7932.600 0.94
7935.800 0.95
7939.000 0.95
7942.200 0.95
7945.400 0.95
7948.600 0.95
7951.800 0.95
7955.000 0.95
7958.100 0.95
7961.300 0.95
7964.500 0.95
7967.700 0.95
7970.900 0.95
7974.100 0.95
7977.300 0.95
7980.400 0.95
7983.600 0.95
7986.800 0.95
7990.000 0.95
7993.200 0.95
7996.300 0.95
7999.500 0.95
8002.700 0.95
8005.900 0.95
8009.100 0.95
8012.200 0.95
8015.400 0.95
8018.600 0.95
8021.800 0.95
8025.000 0.95
8028.100 0.95
8031.300 0.95
8034.500 0.95
8037.700 0.95
8040.800 0.95
8044.000 0.95
8047.200 0.95
8050.400 0.95
8053.500 0.95
8056.700 0.95
8059.900 0.95
8063.100 0.95
8066.200 0.95
8069.400 0.95
8072.600 0.95
8075.700 0.95
8078.900 0.95
8082.100 0.95
8085.200 0.95
8088.400 0.95
8091.600 0.95
8094.800 0.95
8097.900 0.95
8101.100 0.95
8104.300 0.95
8107.400 0.95
8110.600 0.95
8113.700 0.95
8116.900 0.95
8120.100 0.95
8123.200 0.95
8126.400 0.95
8129.600 0.95
8132.700 0.95
8135.900 0.95
8139.100 0.95
8142.200 0.95
8145.400 0.95
8148.500 0.95
8151.700 0.95
8154.900 0.95
8158.000 0.95
8161.200 0.95
8164.300 0.95
8167.500 0.95
8170.600 0.95
8173.800 0.95
8177.000 0.95
8180.100 0.95
8183.300 0.95
8186.400 0.95
8189.600 0.95
8192.700 0.95
8195.900 0.95
8199.000 0.95
8202.200 0.95
8205.400 0.95
8208.500 0.95
8211.700 0.95
8214.800 0.95
8218.000 0.95
8221.100 0.95
8224.300 0.95
8227.400 0.95
8230.600 0.95
8233.700 0.95
8236.900 0.95
8240.000 0.95
8243.200 0.95
8246.300 0.95
8249.400 0.95
8252.600 0.95
8255.700 0.95
8258.900 0.95
8262.000 0.95
8265.200 0.95
8268.300 0.95
8271.500 0.95
8274.600 0.95
8277.700 0.95
8280.900 0.95
8284.000 0.95
8287.200 0.95
8290.300 0.95
8293.500 0.95
8296.600 0.95
8299.700 0.95
8302.900 0.95
8306.000 0.95
8309.100 0.95
8312.300 0.95
8315.400 0.95
8318.600 0.95
8321.700 0.95
8324.800 0.95
8328.000 0.95
8331.100 0.95
8334.200 0.95
8337.400 0.95
8340.500 0.95
8343.600 0.95
8346.800 0.95
8349.900 0.95
8353.000 0.95
8356.200 0.95
8359.300 0.95
8362.400 0.95
8365.600 0.95
8368.700 0.95
8371.800 0.96
8374.900 0.96
8378.100 0.96
8381.200 0.96
8384.300 0.96
8387.500 0.96
8390.600 0.96
8393.700 0.96
8396.800 0.95
8400.000 0.95
8403.100 0.95
8406.200 0.95
8409.300 0.95
8412.500 0.95
8415.600 0.95
8418.700 0.94
8421.800 0.94
8425.000 0.93
8428.100 0.92
8431.200 0.91
8434.300 0.90
8437.400 0.89
8440.600 0.88
8443.700 0.86
8446.800 0.84
8449.900 0.82
8453.000 0.80
8456.200 0.77
8459.300 0.75
8462.400 0.72
8465.500 0.69
8468.600 0.66
8471.700 0.63
8474.900 0.60
8478.000 0.56
8481.100 0.53
8484.200 0.50
8487.300 0.46
8490.400 0.43
8493.500 0.40
8496.600 0.37
8499.800 0.34
8502.900 0.31
8506.000 0.29
8509.100 0.26
8512.200 0.24
8515.300 0.22
8518.400 0.20
8521.500 0.18
8524.600 0.17
8527.700 0.15
8530.900 0.14
8534.000 0.13
8537.100 0.11
8540.200 0.10
8543.300 0.09
8546.400 0.09
8549.500 0.08
8552.600 0.07
8555.700 0.07
8558.800 0.06
8561.900 0.05
8565.000 0.05
8568.100 0.04
8571.200 0.04
8574.300 0.04
8577.400 0.03
8580.500 0.03
8583.600 0.03
8586.700 0.03
8589.800 0.02
8592.900 0.02
8596.000 0.02
8599.100 0.02
8602.200 0.02
8605.300 0.01
8608.400 0.01
8611.500 0.01
8614.600 0.01
8617.700 0.01
8620.800 0.01
8623.900 0.01
8627.000 0.01
8630.100 0.01
8633.200 0.01
8636.200 0.01
8639.300 0.00
8642.400 0.00
8645.500 0.00
8648.600 0.00
8651.700 0.00
8654.800 0.00
8657.900 0.00
8661.000 0.00
8664.100 0.00
8667.100 0.00
8670.200 0.00
8673.300 0.00
8676.400 0.00
8679.500 0.00
8682.600 0.00
8685.700 0.00
8688.800 0.00
8691.800 0.00
8694.900 0.00
8698.000 0.00
8701.100 0.00
8704.200 0.00
8707.300 0.00
8710.300 0.00
8713.400 0.00
